#   1 NUMBER                 Running object number                                      [count]
#   2 ALPHA_J2000            Right ascension of barycenter (J2000)                      [deg]
#   3 DELTA_J2000            Declination of barycenter (J2000)                          [deg]
#   4 F125W_FLUX_AUTO        Flux within a Kron-like elliptical aperture                [uJy]
#   5 F125W_FLUXERR_AUTO     RMS error for AUTO flux                                    [uJy]
#   6 F125W_MAG_AUTO         Kron-like elliptical aperture magnitude                    [mag]
#   7 F125W_MAGERR_AUTO      RMS error for AUTO magnitude                               [mag]
#   8 F160W_FLUX_AUTO        Flux within a Kron-like elliptical aperture                [uJy]
#   9 F160W_FLUXERR_AUTO     RMS error for AUTO flux                                    [uJy]
#  10 F160W_MAG_AUTO         Kron-like elliptical aperture magnitude                    [mag]
#  11 F160W_MAGERR_AUTO      RMS error for AUTO magnitude                               [mag]
#  12 F435W_FLUX_AUTO        Flux within a Kron-like elliptical aperture                [uJy]
#  13 F435W_FLUXERR_AUTO     RMS error for AUTO flux                                    [uJy]
#  14 F435W_MAG_AUTO         Kron-like elliptical aperture magnitude                    [mag]
#  15 F435W_MAGERR_AUTO      RMS error for AUTO magnitude                               [mag]
#  16 F606W_FLUX_AUTO        Flux within a Kron-like elliptical aperture                [uJy]
#  17 F606W_FLUXERR_AUTO     RMS error for AUTO flux                                    [uJy]
#  18 F606W_MAG_AUTO         Kron-like elliptical aperture magnitude                    [mag]
#  19 F606W_MAGERR_AUTO      RMS error for AUTO magnitude                               [mag]
#  20 F775W_FLUX_AUTO        Flux within a Kron-like elliptical aperture                [uJy]
#  21 F775W_FLUXERR_AUTO     RMS error for AUTO flux                                    [uJy]
#  22 F775W_MAG_AUTO         Kron-like elliptical aperture magnitude                    [mag]
#  23 F775_MAGERR_AUTO       RMS error for AUTO magnitude                               [mag]
#  24 F850LP_FLUX_AUTO       Flux within a Kron-like elliptical aperture                [uJy]
#  25 F850LP_FLUXERR_AUTO    RMS error for AUTO flux                                    [uJy]
#  26 F850LP_MAG_AUTO        Kron-like elliptical aperture magnitude                    [mag]
#  27 F850LP_MAGERR_AUTO     RMS error for AUTO magnitude                               [mag]
   10121     53.096527        -27.9065589      2.236714         0.02810772       23.026           0.0136           3.753008         0.03651674       22.4641          0.0106           0.206759         0.01989832       27.3763          0.1045           0.05047308       0.02918358       27.1423          0.6279           0.171281         0.07278303       25.8157          0.4615           0.6533633        0.08265191       24.3621          0.1374         
   18587     53.1161694       -27.8718829      1.863677         0.03040477       23.2241          0.0177           3.781469         0.03950099       22.4558          0.0113           0.0716923        0.02152447       28.5263          0.3261           0.06101253       0.03156855       26.9365          0.5619           0.1774007        0.07873107       25.7776          0.482            0.6089376        0.08940647       24.4386          0.1595         
   18826     53.2002867       -27.8456111      0.01304193       0.01086347       28.6116          0.9046           0.05339762       0.0141135        27.0812          0.287            -9.937398e-05    0.007690581      99.0             99.0             0.01540275       0.01127928       28.431           0.7953           0.00678955       0.0281302        29.3204          4.4995           0.1813459        0.03194447       25.7537          0.1913         
   21976     53.0923397       -27.8375802      0.05533348       0.01214572       27.0425          0.2384           0.1103508        0.01577937       26.2931          0.1553           0.03444371       0.008598331      29.3222          0.2711           0.01151308       0.01261062       28.747           1.1895           0.02790095       0.03145052       27.786           1.2242           0.1946245        0.035715         25.677           0.1993         
   22990     53.1667186       -27.8041746      0.2978775        0.01810578       25.2149          0.066            0.3116251        0.0235225        25.1659          0.082            0.02596806       0.01281764       29.6289          0.536            0.001465607      0.0187988        30.985           13.9297          0.1096626        0.04688367       26.2999          0.4643           0.3639127        0.05324078       24.9975          0.1589         
   23889     53.1174482       -27.8052201      0.1244906        0.01557518       26.1622          0.1359           0.1637413        0.02023482       25.8646          0.1342           -0.00505464      0.01102615       99.0             99.0             0.02944501       0.01617134       27.7275          0.5964           0.03352389       0.04033086       27.5866          1.3065           0.285455         0.04579945       25.2612          0.1742         
   24207     53.1071009       -27.8047749      0.703759         0.02642451       24.2814          0.0408           2.299956         0.03432995       22.9957          0.0162           0.05420645       0.01870672       28.8299          0.3748           0.04195631       0.02743594       27.343           0.7102           0.1187948        0.06842447       26.213           0.6255           0.415825         0.07770236       24.8527          0.2029         
   25549     53.1547137       -27.7739392      0.9639151        0.02304489       23.9399          0.026            1.626182         0.02993925       23.3721          0.02             0.0111842        0.01631419       30.5435          1.5841           0.04158153       0.02392696       27.3527          0.6249           0.1005178        0.05967318       26.3944          0.6447           0.5142817        0.06776445       24.622           0.1431         
   28265     53.0801412       -27.7626893      2.377384         0.0192467        22.9598          0.0088           3.346437         0.02500476       22.5885          0.0081           -0.008258408     0.01362533       99.0             99.0             0.04035825       0.01998339       27.3852          0.5377           0.4763856        0.04983803       24.7051          0.1136           1.736693         0.05659572       23.3007          0.0354         
   28539     53.1336213       -27.7449748      0.2270759        0.01459734       25.5096          0.0698           0.3791852        0.01896445       24.9529          0.0543           0.0467298        0.01033391       28.991           0.2402           0.01412482       0.01515607       28.525           1.1653           0.06085286       0.03779883       26.9393          0.6746           0.216837         0.04292409       25.5597          0.215          
   30650     53.0874771       -27.7377993      0.1289981        0.0208806        26.1235          0.1758           0.1647253        0.02712747       25.8581          0.1788           0.2270078        0.01478202       27.2749          0.0707           0.02932193       0.02167983       27.732           0.803            0.0822263        0.05406889       26.6125          0.7141           0.3439311        0.06140026       25.0588          0.1939         
   31983     53.1127724       -27.7192183      0.1591675        0.02040417       25.8954          0.1392           0.1311988        0.02650851       26.1052          0.2194           0.07105337       0.01444474       28.536           0.2208           0.03544325       0.02118517       27.5262          0.6491           0.07016747       0.05283521       26.7847          0.8177           0.3460439        0.05999931       25.0522          0.1883         
   32273     53.0737834       -27.7279339      0.5932638        0.01330497       24.4669          0.0244           0.5901278        0.01728544       24.4726          0.0318           0.003763964      0.009419         31.7259          2.7176           0.01353749       0.01381424       28.5712          1.1082           0.07114294       0.03445232       26.7697          0.5259           0.2750278        0.03912382       25.3016          0.1545         
   32723     53.1685273       -27.6986641      0.07982151       0.01055739       26.6447          0.1436           0.1072407        0.01371586       26.3241          0.1389           0.05228049       0.007473902      28.8692          0.1553           0.001694001      0.01096149       30.8277          7.0273           0.05897104       0.02733764       26.9734          0.5034           0.9086841        0.03104444       24.004           0.0371         
   32757     53.1683327       -27.698815       0.4878816        0.01503979       24.6792          0.0335           0.5545598        0.01953925       24.5401          0.0383           0.09967914       0.01064713       28.1685          0.116            0.05280881       0.01561545       27.0932          0.3211           0.09297311       0.03894451       26.4791          0.4549           0.947794         0.04422511       23.9582          0.0507         
   33398     53.0512568       -27.7262773      0.3141633        0.01966791       25.1571          0.068            0.318686         0.02555197       25.1416          0.0871           0.1033499        0.01392352       28.1292          0.1463           0.02931035       0.02042072       27.7324          0.7566           0.1783586        0.0509287        25.7718          0.3101           0.6207708        0.05783429       24.4177          0.1012         
   33496     53.1393568       -27.7019572      0.420905         0.01366956       24.8395          0.0353           0.6511587        0.0177591        24.3658          0.0296           0.03113706       0.009677103      29.4318          0.3375           0.01050358       0.01419278       28.8467          1.4674           0.05750121       0.0353964        27.0008          0.6685           0.2034982        0.0401959        25.6286          0.2145         
   34762     53.1610735       -27.6824837      0.0001337081     0.00768163       33.5846          62.3915          0.05420868       0.009979751      27.0648          0.1999           -0.001363881     0.005438062      99.0             99.0             0.001271922      0.007975654      31.1388          6.8098           0.02987251       0.01989106       27.7118          0.7231           0.1211317        0.02258815       26.1919          0.2025         
   34973     53.1006753       -27.7032         36.69078         0.02297365       19.9886          0.0007           39.36635         0.0298467        19.9122          0.0008           0.1005111        0.01626376       28.1595          0.1757           0.2753142        0.023853         25.3004          0.0941           3.552834         0.05948871       22.5236          0.0182           13.98411         0.06755497       21.0359          0.0052         
