#   1 NUMBER                 Running object number                                      [count]
#   2 ALPHA_J2000            Right ascension of barycenter (J2000)                      [deg]
#   3 DELTA_J2000            Declination of barycenter (J2000)                          [deg]
#   4 F125W_FLUX_AUTO        Flux within a Kron-like elliptical aperture                [uJy]
#   5 F125W_FLUXERR_AUTO     RMS error for AUTO flux                                    [uJy]
#   6 F125W_MAG_AUTO         Kron-like elliptical aperture magnitude                    [mag]
#   7 F125W_MAGERR_AUTO      RMS error for AUTO magnitude                               [mag]
#   8 F160W_FLUX_AUTO        Flux within a Kron-like elliptical aperture                [uJy]
#   9 F160W_FLUXERR_AUTO     RMS error for AUTO flux                                    [uJy]
#  10 F160W_MAG_AUTO         Kron-like elliptical aperture magnitude                    [mag]
#  11 F160W_MAGERR_AUTO      RMS error for AUTO magnitude                               [mag]
#  12 F435W_FLUX_AUTO        Flux within a Kron-like elliptical aperture                [uJy]
#  13 F435W_FLUXERR_AUTO     RMS error for AUTO flux                                    [uJy]
#  14 F435W_MAG_AUTO         Kron-like elliptical aperture magnitude                    [mag]
#  15 F435W_MAGERR_AUTO      RMS error for AUTO magnitude                               [mag]
#  16 F606W_FLUX_AUTO        Flux within a Kron-like elliptical aperture                [uJy]
#  17 F606W_FLUXERR_AUTO     RMS error for AUTO flux                                    [uJy]
#  18 F606W_MAG_AUTO         Kron-like elliptical aperture magnitude                    [mag]
#  19 F606W_MAGERR_AUTO      RMS error for AUTO magnitude                               [mag]
#  20 F775W_FLUX_AUTO        Flux within a Kron-like elliptical aperture                [uJy]
#  21 F775W_FLUXERR_AUTO     RMS error for AUTO flux                                    [uJy]
#  22 F775W_MAG_AUTO         Kron-like elliptical aperture magnitude                    [mag]
#  23 F775_MAGERR_AUTO       RMS error for AUTO magnitude                               [mag]
#  24 F850LP_FLUX_AUTO       Flux within a Kron-like elliptical aperture                [uJy]
#  25 F850LP_FLUXERR_AUTO    RMS error for AUTO flux                                    [uJy]
#  26 F850LP_MAG_AUTO        Kron-like elliptical aperture magnitude                    [mag]
#  27 F850LP_MAGERR_AUTO     RMS error for AUTO magnitude                               [mag]
   3331      53.2012067       -27.9005462      0.02413547       0.01557518       27.9434          0.7008           -0.06028086      0.02023482       99.0             99.0             0.02468319       0.01102615       29.684           0.4851           0.03156557       0.01617134       27.652           0.5564           0.07004657       0.04033086       26.7865          0.6253           0.2372763        0.04579945       25.4619          0.2096         
   6575      53.2275631       -27.8907894      -0.003316745     0.01330497       99.0             99.0             0.0353251        0.01728544       27.5298          0.5314           0.01026398       0.009419         30.6367          0.9966           0.02030171       0.01381424       28.1312          0.739            0.002608962      0.03445232       30.3588          14.341           0.2210305        0.03912382       25.5389          0.1922         
   12905     53.1849246       -27.8975012      0.01770515       0.006272024      28.2798          0.3847           0.02573036       0.008148433      27.8739          0.3439           -0.009873752     0.004440159      99.0             99.0             0.01216534       0.006512094      28.6872          0.5813           0.0001236126     0.01624098       33.6698          142.6853         0.1193952        0.01844315       26.2075          0.1678         
   16297     53.2346897       -27.8816523      -0.1852264       0.01187275       99.0             99.0             -0.1197349       0.01542473       99.0             99.0             -0.009347122     0.008405086      99.0             99.0             0.01647137       0.0123272        28.3582          0.8128           0.03946435       0.03074368       27.4095          0.846            0.2145028        0.03491231       25.5714          0.1768         
   36781     53.0965274       -27.9065592      2.162873         0.03603004       23.0624          0.0181           3.840202         0.04680918       22.4391          0.0132           0.3401968        0.02550677       26.8357          0.0814           0.0656056        0.03740913       26.8576          0.6193           0.0385226        0.09329733       27.4357          2.6302           0.7202181        0.1059478        24.2563          0.1598         
   37722     53.1571762       -27.8867445      -0.002428517     0.004434991      99.0             99.0             0.0195646        0.005761812      28.1713          0.3198           -0.001274198     0.003139667      99.0             99.0             0.001597255      0.004604746      30.8916          3.1308           0.01472862       0.01148411       28.4796          0.8468           0.07384899       0.01304127       26.7291          0.1918         
   37949     53.1606151       -27.8858454      0.01773229       0.008869982      28.2781          0.5432           0.01901966       0.01152362       28.202           0.658            0.01055238       0.006279333      30.6066          0.6462           0.01114453       0.009209491      28.7823          0.8974           0.04004097       0.02296822       27.3937          0.6229           0.1976621        0.02608255       25.6602          0.1433         
   44931     53.2341253       -27.8602746      -0.005998112     0.009580676      99.0             99.0             0.02600272       0.01244694       27.8625          0.5198           0.009272553      0.006782455      30.747           0.7944           0.004468173      0.009947388      29.7747          2.4177           0.02109186       0.02480851       28.0897          1.2774           0.1612754        0.02817237       25.8811          0.1897         
   64172     53.2159631       -27.8478507      -0.006214768     0.009052888      99.0             99.0             0.02417074       0.01176125       27.9418          0.5284           -0.0012626       0.006408818      99.0             99.0             0.002062283      0.009399398      30.6141          4.9497           0.0427586        0.02344184       27.3224          0.5954           0.1567505        0.02662039       25.912           0.1844         
   65073     53.1648092       -27.8613895      0.07307248       0.01958439       26.7406          0.2911           0.1062593        0.02544347       26.3341          0.26             -0.02228103      0.01386439       99.0             99.0             0.03959448       0.02033401       27.4059          0.5577           0.05097582       0.05071245       27.1316          1.0804           0.2910472        0.05758871       25.2401          0.2149         
   70906     53.2003097       -27.8456084      0.001218162      0.0134276        31.1857          11.9708          0.03634544       0.01744475       27.4989          0.5212           0.01023695       0.009505813      30.6396          1.0084           0.02735247       0.01394156       27.8075          0.5535           0.009330399      0.03476986       28.9752          4.047            0.2615798        0.03948442       25.356           0.1639         
   76259     53.2005039       -27.8364836      0.009718366      0.01536326       28.931           1.7168           0.04360624       0.0199595        27.3011          0.4971           0.04228079       0.01087612       29.0996          0.2794           0.01765791       0.01595131       28.2827          0.981            0.04702556       0.03978211       27.2192          0.9187           0.3841463        0.0451763        24.9388          0.1277         
   79814     53.1914928       -27.830289       0.06196502       0.01437101       26.9196          0.2519           0.0627541        0.0186704        26.9059          0.3231           0.1035764        0.01017368       28.1268          0.1067           0.0294098        0.01492108       27.7288          0.551            0.0564351        0.03721276       27.0211          0.7161           0.2579026        0.04225856       25.3714          0.1779         
   85063     53.2084117       -27.811768       0.005786613      0.00724231       29.4939          1.3592           0.01237445       0.009408999      28.6687          0.8257           0.005372386      0.005127054      31.3396          1.0364           0.005910676      0.007519518      29.4709          1.3816           0.008554347      0.01875347       29.0695          2.3808           0.1128133        0.02129631       26.2691          0.205          
   89691     53.1963845       -27.8020103      -0.008929417     0.006272024      99.0             99.0             0.0143839        0.008148433      28.5053          0.6152           0.0042843        0.004440159      31.5853          1.1255           0.009030037      0.006512094      29.0108          0.7832           0.004171051      0.01624098       29.8494          4.2286           0.1214687        0.01844315       26.1888          0.1649         
   91640     53.0721939       -27.8306331      -0.01633181      0.01708096       99.0             99.0             0.02435233       0.02219108       27.9336          0.9896           0.03241925       0.01209213       29.388           0.4051           0.02351926       0.01773475       27.9714          0.8189           0.002718382      0.04422997       30.3142          17.67            1.018936         0.05022725       23.8796          0.0535         
   92875     53.1032698       -27.8202971      1.134226         0.02064376       23.7633          0.0198           1.397889         0.02681977       23.5363          0.0208           0.03868902       0.01461435       29.196           0.4102           0.001111962      0.02143393       31.2848          20.9335          0.111355         0.05345561       26.2832          0.5213           0.5405686        0.06070383       24.5679          0.122          
   94358     53.0918277       -27.8177433      0.01811016       0.009408037      28.2552          0.5642           0.02867702       0.01222265       27.7562          0.4629           0.007329093      0.006660239      31.0024          0.9869           0.008803345      0.009768141      29.0384          1.205            0.02221832       0.02436147       28.0332          1.1908           0.1521451        0.02766472       25.9444          0.1975         
   95630     53.0686517       -27.8202773      -0.00550811      0.00652813       99.0             99.0             0.01801232       0.008481157      28.2611          0.5113           0.01754151       0.004621464      30.0548          0.2861           0.008456599      0.006778002      29.082           0.8704           0.01013463       0.01690415       28.8855          1.8114           0.1118928        0.01919624       26.278           0.1863         
   96508     53.1174499       -27.8052225      0.1277768        0.0189895        26.1339          0.1614           0.166095         0.0246706        25.8491          0.1613           0.00126416       0.01344325       32.9105          11.5487          0.01394721       0.01971634       28.5388          1.5352           0.03211415       0.04917201       27.6333          1.6628           0.3714258        0.0558394        24.9753          0.1633         
   98740     53.1964995       -27.7778407      0.07754484       0.01305626       26.6761          0.1829           0.05060765       0.01696231       27.1395          0.364            0.02364223       0.009242929      29.7308          0.4246           0.02496304       0.013556         27.9068          0.5897           0.02226111       0.0338083        28.0311          1.6493           0.2321453        0.03839247       25.4856          0.1796         
   99692     53.1927807       -27.7768516      0.05563125       0.01536326       27.0367          0.2999           0.03759529       0.0199595        27.4622          0.5766           0.05860451       0.01087612       28.7452          0.2015           0.02969137       0.01595131       27.7184          0.5834           0.01090708       0.03978211       28.8057          3.961            0.2407632        0.0451763        25.446           0.2038         
   101564    53.1816112       -27.7750115      0.04849138       0.0223223        27.1858          0.4999           0.03971263       0.02900048       27.4027          0.7931           0.05431219       0.01580264       28.8278          0.316            0.0119369        0.02317671       28.7078          2.1086           0.03648423       0.05780207       27.4947          1.7206           0.3808746        0.06563964       24.948           0.1872         
   105375    53.1154823       -27.783682       0.03641537       0.01872876       27.4968          0.5585           0.04149619       0.02433186       27.355           0.6368           0.06148483       0.01325867       28.6931          0.2342           0.02102789       0.01944563       28.093           1.0043           0.0759494        0.04849685       26.6987          0.6935           0.2754074        0.05507269       25.3001          0.2172         
   105479    53.1547081       -27.7739355      0.9706137        0.02566937       23.9324          0.0287           1.649141         0.0333489        23.3569          0.022            0.01232586       0.01817214       30.438           1.6011           0.0515166        0.02665189       27.1201          0.5618           0.1117235        0.06646908       26.2796          0.6461           0.5514703        0.07548183       24.5462          0.1486         
   116646    53.1448257       -27.7463646      0.008179046      0.007892124      29.1182          1.0479           0.02441341       0.01025322       27.9309          0.4561           -0.0003141575    0.005587078      99.0             99.0             0.01379818       0.008194205      28.5504          0.6449           0.008037746      0.02043612       29.1372          2.7612           0.1490532        0.02320712       25.9666          0.1691         
   118370    53.0801419       -27.7626904      2.473073         0.02429145       22.9169          0.0107           3.447454         0.03155874       22.5563          0.0099           -0.01004764      0.01719666       99.0             99.0             0.0395481        0.02522123       27.4072          0.6926           0.45471          0.06290105       24.7557          0.1502           1.648891         0.07143          23.357           0.047          
   119300    53.0570549       -27.7653161      -0.006266102     0.0114511        99.0             99.0             0.02235992       0.01487693       28.0263          0.7226           0.01701109       0.008106585      30.0882          0.5175           0.001892362      0.0118894        30.7075          6.8232           0.01676553       0.02965184       28.339           1.9207           0.1749976        0.03367243       25.7924          0.209          
   120004    53.1639229       -27.7351041      0.02721486       0.01008087       27.813           0.4023           0.0279647        0.01309677       27.7835          0.5086           -0.004965907     0.007136557      99.0             99.0             0.004951838      0.01046673       29.6631          2.2955           0.02905841       0.02610372       27.7418          0.9756           0.1650805        0.02964321       25.8558          0.195          
   128559    53.1678915       -27.7179715      -0.001877338     0.004790338      99.0             99.0             0.01471282       0.006223468      28.4808          0.4594           -0.0004116371    0.003391228      99.0             99.0             0.00898255       0.004973694      29.0165          0.6013           0.005377062      0.01240425       29.5736          2.5053           0.09193099       0.01408619       26.4913          0.1664         
   132877    53.0513908       -27.7414352      0.0316606        0.01055739       27.6487          0.3621           0.03509441       0.01371586       27.5369          0.4244           0.01636732       0.007473902      30.1301          0.4959           0.01293573       0.01096149       28.6205          0.9203           0.02802644       0.02733764       27.7811          1.0593           0.1935164        0.03104444       25.6832          0.1742         
   132981    53.1640646       -27.7109212      0.005675696      0.0114511        29.515           2.1911           0.02079915       0.01487693       28.1049          0.7768           0.01093423       0.008106585      30.568           0.8052           0.01022813       0.0118894        28.8755          1.2624           0.008219615      0.02965184       29.1129          3.9177           0.1986003        0.03367243       25.6551          0.1841         
   139211    53.0327496       -27.7368037      -0.002763577     0.009580676      99.0             99.0             0.02771959       0.01244694       27.793           0.4876           0.0357903        0.006782455      29.2806          0.2058           0.01433386       0.009947388      28.5091          0.7537           0.05175623       0.02480851       27.1151          0.5206           0.1743264        0.02817237       25.7966          0.1755         
   143960    53.0641454       -27.727751       3.728246         0.04838004       22.4712          0.0141           6.150609         0.06285395       21.9277          0.0111           0.2510711        0.03424972       27.1655          0.1481           0.0800541        0.05023185       26.6415          0.6814           0.02196646       0.1252768        28.0456          6.1936           0.9267357        0.1422635        23.9826          0.1667         
   145041    53.0540099       -27.7229582      0.1117717        0.01872876       26.2792          0.182            0.09403689       0.02433186       26.4668          0.281            0.1138452        0.01325867       28.0242          0.1265           0.0170343        0.01944563       28.3217          1.2397           0.08766939       0.04849685       26.5429          0.6008           0.2978479        0.05507269       25.215           0.2008         
   145210    53.1541034       -27.6949619      0.002179317      0.005121087      30.5542          2.5519           0.01184295       0.006653167      28.7164          0.6101           -0.001650224     0.003625375      99.0             99.0             0.005418684      0.005317103      29.5653          1.0656           0.0049982        0.01326071       29.653           2.8813           0.07996885       0.01505877       26.6427          0.2045         
   147527    53.1395396       -27.6954483      0.01767175       0.01649515       28.2818          1.0137           0.02763192       0.02143002       27.7965          0.8423           0.04361866       0.01167742       29.0658          0.2907           0.01450963       0.01712652       28.4959          1.2819           0.06832776       0.04271306       26.8135          0.6789           0.3697592        0.04850466       24.9802          0.1425         
   148406    53.1366566       -27.6949659      0.02508512       0.01071152       27.9015          0.4637           0.02472389       0.0139161        27.9172          0.6113           0.02663254       0.007583016      29.6015          0.3092           0.0210074        0.01112152       28.0941          0.5749           0.04228183       0.02773676       27.3346          0.7124           0.1806009        0.03149767       25.7582          0.1894         
   151714    53.1006735       -27.7032031      37.15271         0.02804935       19.975           0.0008           40.05103         0.0364409        19.8935          0.001            0.1116505        0.01985699       28.0453          0.1931           0.2941423        0.02912297       25.2286          0.1075           3.605622         0.07263187       22.5075          0.0219           14.28383         0.08248026       21.0129          0.0063         
   152238    53.1306945       -27.6907136      -0.009272285     0.01437101       99.0             99.0             0.03512032       0.0186704        27.5361          0.5773           0.02637415       0.01017368       29.6121          0.4189           0.008770127      0.01492108       29.0425          1.8477           0.02767909       0.03721276       27.7946          1.4601           0.2118098        0.04225856       25.5851          0.2167         
   155307    53.1070999       -27.6919388      -0.00124409      0.00724231       99.0             99.0             0.01697727       0.009408999      28.3253          0.6019           0.01477422       0.005127054      30.2412          0.3769           0.001110174      0.007519518      31.2865          7.3558           0.007584587      0.01875347       29.2002          2.6852           0.1450123        0.02129631       25.9965          0.1595         
   156918    53.1499251       -27.6778567      0.03009984       0.01482022       27.7036          0.5347           0.05480325       0.019254         27.053           0.3815           0.01389302       0.01049169       30.308           0.8201           0.01010681       0.01538748       28.8885          1.6534           0.0435624        0.03837594       27.3022          0.9567           0.2193027        0.04357946       25.5474          0.2158         
   157698    53.1692632       -27.6710216      -0.007059105     0.007892124      99.0             99.0             0.02537487       0.01025322       27.889           0.4388           -0.0001586434    0.005587078      99.0             99.0             1.392514e-05     0.008194205      36.0405          639.0535         0.01213963       0.02043612       28.6895          1.8282           0.1171099        0.02320712       26.2285          0.2152         
   160188    53.027156        -27.7067615      0.04287253       0.01649515       27.3196          0.4178           0.05898359       0.02143002       26.9732          0.3946           0.02764978       0.01167742       29.5608          0.4587           0.02614938       0.01712652       27.8563          0.7113           0.02367618       0.04271306       27.9642          1.9592           0.2447446        0.04850466       25.4282          0.2152         
