#   1 NUMBER                 Running object number                                      [count]
#   2 ALPHA_J2000            Right ascension of barycenter (J2000)                      [deg]
#   3 DELTA_J2000            Declination of barycenter (J2000)                          [deg]
#   4 F125W_FLUX_AUTO        Flux within a Kron-like elliptical aperture                [uJy]
#   5 F125W_FLUXERR_AUTO     RMS error for AUTO flux                                    [uJy]
#   6 F125W_MAG_AUTO         Kron-like elliptical aperture magnitude                    [mag]
#   7 F125W_MAGERR_AUTO      RMS error for AUTO magnitude                               [mag]
#   8 F160W_FLUX_AUTO        Flux within a Kron-like elliptical aperture                [uJy]
#   9 F160W_FLUXERR_AUTO     RMS error for AUTO flux                                    [uJy]
#  10 F160W_MAG_AUTO         Kron-like elliptical aperture magnitude                    [mag]
#  11 F160W_MAGERR_AUTO      RMS error for AUTO magnitude                               [mag]
#  12 F435W_FLUX_AUTO        Flux within a Kron-like elliptical aperture                [uJy]
#  13 F435W_FLUXERR_AUTO     RMS error for AUTO flux                                    [uJy]
#  14 F435W_MAG_AUTO         Kron-like elliptical aperture magnitude                    [mag]
#  15 F435W_MAGERR_AUTO      RMS error for AUTO magnitude                               [mag]
#  16 F606W_FLUX_AUTO        Flux within a Kron-like elliptical aperture                [uJy]
#  17 F606W_FLUXERR_AUTO     RMS error for AUTO flux                                    [uJy]
#  18 F606W_MAG_AUTO         Kron-like elliptical aperture magnitude                    [mag]
#  19 F606W_MAGERR_AUTO      RMS error for AUTO magnitude                               [mag]
#  20 F775W_FLUX_AUTO        Flux within a Kron-like elliptical aperture                [uJy]
#  21 F775W_FLUXERR_AUTO     RMS error for AUTO flux                                    [uJy]
#  22 F775W_MAG_AUTO         Kron-like elliptical aperture magnitude                    [mag]
#  23 F775_MAGERR_AUTO       RMS error for AUTO magnitude                               [mag]
#  24 F850LP_FLUX_AUTO       Flux within a Kron-like elliptical aperture                [uJy]
#  25 F850LP_FLUXERR_AUTO    RMS error for AUTO flux                                    [uJy]
#  26 F850LP_MAG_AUTO        Kron-like elliptical aperture magnitude                    [mag]
#  27 F850LP_MAGERR_AUTO     RMS error for AUTO magnitude                               [mag]
   847       53.1664604       -27.9091984      0.04208483       0.02119227       27.3397          0.5469           0.1004153        0.02753238       26.3955          0.2978           0.02007252       0.01500266       29.9085          0.8117           0.00536802       0.02200343       29.5755          4.4515           0.07529484       0.05487593       26.7081          0.7915           0.314175         0.06231673       25.1571          0.2154         
   2723      53.2370405       -27.883958       -0.133885        0.009916942      99.0             99.0             0.08671418       0.0128838        26.5548          0.1614           0.01375223       0.007020508      30.3191          0.5544           0.01727283       0.01029652       28.3066          0.6474           0.002053581      0.02567925       30.6187          13.58            0.1498328        0.02916118       25.961           0.2114         
   6462      53.2028442       -27.8820302      0.08486661       0.01071152       26.5782          0.1371           0.02554391       0.0139161        27.8818          0.5916           -0.003365178     0.007583016      99.0             99.0             0.003474358      0.01112152       30.0478          3.4763           0.01583689       0.02773676       28.4008          1.902            0.1829511        0.03149767       25.7442          0.187          
   16881     53.0867512       -27.8623307      7.391065         0.03264065       21.7282          0.0048           9.378023         0.04240579       21.4697          0.0049           0.2418042        0.02310732       27.2063          0.1038           0.7234437        0.03389001       24.2515          0.0509           3.873762         0.08452074       22.4297          0.0237           12.98105         0.09598118       21.1167          0.008          
   18732     53.0923366       -27.8375789      0.05566826       0.01173388       27.036           0.2289           0.1012999        0.01524432       26.386           0.1634           0.03349243       0.008306777      29.3526          0.2693           0.01076047       0.01218301       28.8204          1.2296           0.01808491       0.03038409       28.2567          1.8246           0.2034303        0.03450397       25.629           0.1842         
   20491     53.1174482       -27.8052201      0.1244906        0.01557518       26.1622          0.1359           0.1637413        0.02023482       25.8646          0.1342           -0.00505464      0.01102615       99.0             99.0             0.02944501       0.01617134       27.7275          0.5964           0.03352389       0.04033086       27.5866          1.3065           0.285455         0.04579945       25.2612          0.1742         
   20704     53.1071006       -27.8047743      0.7111506        0.02667147       24.2701          0.0407           2.304986         0.0346508        22.9933          0.0163           0.05360497       0.01888156       28.842           0.3825           0.04066506       0.02769236       27.3769          0.7396           0.1130112        0.06906396       26.2672          0.6637           0.4092608        0.07842857       24.87            0.2081         
   22017     53.1547135       -27.773939       0.965865         0.02275861       23.9377          0.0256           1.621614         0.02956732       23.3751          0.0198           0.01230957       0.01611152       30.4394          1.4214           0.04443459       0.02362972       27.2807          0.5775           0.103946         0.05893186       26.358           0.6157           0.5129136        0.06692262       24.6249          0.1417         
   24565     53.0801407       -27.76269        2.378466         0.01916135       22.9593          0.0087           3.345879         0.02489387       22.5887          0.0081           -0.01006445      0.01356491       99.0             99.0             0.03857467       0.01989478       27.4342          0.5601           0.4593686        0.04961701       24.7446          0.1173           1.73288          0.05634474       23.3031          0.0353         
   27383     53.1645877       -27.7101066      0.06797222       0.01448462       26.8192          0.2314           0.0908226        0.018818         26.5045          0.225            0.06161568       0.01025411       28.6908          0.1807           0.02134836       0.01503904       28.0766          0.765            0.01300812       0.03750694       28.6145          3.1313           0.2218475        0.04259262       25.5349          0.2085         
   28224     53.0737845       -27.7279347      0.590167         0.01305626       24.4726          0.024            0.5893784        0.01696231       24.474           0.0313           0.002768639      0.009242929      32.0593          3.6255           0.01525943       0.013556         28.4412          0.9648           0.08068064       0.0338083        26.6331          0.4551           0.2706376        0.03839247       25.319           0.1541         
   28226     53.1693544       -27.7020179      0.05730526       0.0189895        27.0045          0.3599           0.3068625        0.0246706        25.1826          0.0873           0.04945526       0.01344325       28.9295          0.2952           0.02881856       0.01971634       27.7508          0.743            0.07286052       0.04917201       26.7438          0.7329           0.3056576        0.0558394        25.1869          0.1984         
   28658     53.1683327       -27.698815       0.4862862        0.0147092        24.6828          0.0328           0.5543947        0.01910977       24.5405          0.0374           0.08958946       0.0104131        28.2844          0.1262           0.03896642       0.01527221       27.4233          0.4256           0.07747083       0.03808847       26.6772          0.5339           0.9065043        0.04325301       24.0066          0.0518         
   29248     53.051256        -27.726276       0.3072318        0.01933168       25.1813          0.0683           0.320569         0.02511515       25.1352          0.0851           0.1031851        0.01368549       28.131           0.144            0.03036692       0.02007162       27.694           0.7178           0.1819546        0.05005806       25.7501          0.2988           0.6084849        0.05684559       24.4394          0.1015         
   29348     53.1393576       -27.7019569      0.420905         0.01366956       24.8395          0.0353           0.6511587        0.0177591        24.3658          0.0296           0.03113706       0.009677103      29.4318          0.3375           0.01050358       0.01419278       28.8467          1.4674           0.05750121       0.0353964        27.0008          0.6685           0.2034982        0.0401959        25.6286          0.2145         
   31912     53.1006755       -27.7032001      36.66805         0.02275861       19.9893          0.0007           39.31934         0.02956732       19.9135          0.0008           0.09980701       0.01611152       28.1671          0.1753           0.2787817        0.02362972       25.2868          0.0921           3.554292         0.05893186       22.5231          0.018            13.94795         0.06692262       21.0387          0.0052         
